E(eV)	f1	f2
10.0000	-9999.	4.00688	
10.1617	-9999.	4.00859	
10.3261	-9999.	4.01031	
10.4931	-9999.	4.01202	
10.6628	-9999.	4.01374	
10.8353	-9999.	4.01545	
11.0106	-9999.	4.01717	
11.1886	-9999.	4.01889	
11.3696	-9999.	4.02060	
11.5535	-9999.	4.02232	
11.7404	-9999.	4.02404	
11.9303	-9999.	4.02576	
12.1232	-9999.	4.00013	
12.3193	-9999.	3.95924	
12.5186	-9999.	3.91876	
12.7210	-9999.	3.87870	
12.9268	-9999.	3.83905	
13.1359	-9999.	3.79981	
13.3483	-9999.	3.76096	
13.5642	-9999.	3.72252	
13.7836	-9999.	3.68446	
14.0066	-9999.	3.64508	
14.2331	-9999.	3.55014	
14.4633	-9999.	3.45769	
14.6973	-9999.	3.36764	
14.9350	-9999.	3.27993	
15.1765	-9999.	3.19451	
15.4220	-9999.	3.11131	
15.6714	-9999.	3.03028	
15.9249	-9999.	2.95136	
16.1825	-9999.	2.83110	
16.4442	-9999.	2.69865	
16.7102	-9999.	2.57241	
16.9805	-9999.	2.45206	
17.2551	-9999.	2.33735	
17.5342	-9999.	2.22801	
17.8178	-9999.	2.12378	
18.1060	-9999.	1.97551	
18.3989	-9999.	1.76134	
18.6964	-9999.	1.57040	
18.9988	-9999.	1.40015	
19.3061	-9999.	1.24837	
19.6184	-9999.	1.11303	
19.9357	-9999.	0.992371	
20.2582	-9999.	0.862309	
20.5858	-9999.	0.753545	
20.9188	-9999.	0.698853	
21.2571	-9999.	0.648131	
21.6009	-9999.	0.602534	
21.9503	-9999.	0.561517	
22.3053	-9999.	0.523292	
22.6661	-9999.	0.496905	
23.0327	-9999.	0.478083	
23.4053	-9999.	0.459974	
23.7838	-9999.	0.442552	
24.1685	-9999.	0.425789	
24.5594	-9999.	0.413106	
24.9566	-9999.	0.403049	
25.3603	-9999.	0.393236	
25.7705	-9999.	0.383663	
26.1873	-9999.	0.374323	
26.6109	-9999.	0.365209	
27.0413	-9999.	0.366284	
27.4786	-9999.	0.367369	
27.9231	-9999.	0.368458	
28.3747	-9999.	0.369549	
28.8337	-9999.	0.370644	
29.3000	3.83810	0.371742	
29.7739	3.81113	0.372844	
30.2555	3.78510	0.373949	
30.7449	3.75986	0.375057	
31.2421	3.73443	0.376168	
31.7475	3.70935	0.378082	
32.2609	3.68523	0.381990	
32.7827	3.66272	0.385940	
33.3130	3.64121	0.389930	
33.8518	3.62050	0.393962	
34.3993	3.60047	0.398035	
34.9557	3.58105	0.402151	
35.5211	3.56215	0.406309	
36.0956	3.54375	0.410510	
36.6794	3.52579	0.414754	
37.2727	3.50826	0.419042	
37.8755	3.49117	0.423375	
38.4882	3.47456	0.427752	
39.1107	3.45872	0.432175	
39.7432	3.44407	0.435542	
40.3861	3.42906	0.437140	
41.0393	3.41253	0.438744	
41.7031	3.39566	0.440353	
42.3776	3.37839	0.441968	
43.0630	3.36074	0.443589	
43.7595	3.34269	0.445216	
44.4673	3.32426	0.446849	
45.1865	3.30543	0.448488	
45.9174	3.28634	0.450133	
46.6600	3.26680	0.451191	
47.4147	3.24642	0.451973	
48.1816	3.22497	0.452756	
48.9609	3.20265	0.453540	
49.7528	3.17938	0.454326	
50.5576	3.15506	0.455112	
51.3753	3.12964	0.455901	
52.2062	3.10219	0.456691	
53.0506	3.07309	0.458296	
53.9087	3.04340	0.461941	
54.7806	3.01345	0.465616	
55.6667	2.98263	0.469319	
56.5670	2.95066	0.473052	
57.4820	2.91728	0.476815	
58.4117	2.88166	0.480608	
59.3564	2.84199	0.484431	
60.3165	2.80160	0.494934	
61.2921	2.76291	0.506494	
62.2834	2.72490	0.518325	
63.2908	2.68723	0.530432	
64.3145	2.65023	0.542822	
65.3547	2.61679	0.554883	
66.4118	2.58062	0.558960	
67.4859	2.54080	0.563068	
68.5775	2.49941	0.567206	
69.6867	2.45865	0.571374	
70.8138	2.41955	0.566787	
71.9591	2.36989	0.552950	
73.1230	2.31093	0.539453	
74.3057	2.24774	0.526284	
75.5076	2.18127	0.504753	
76.7289	2.09763	0.477393	
77.9699	1.99555	0.451516	
79.2310	1.87890	0.427357	
80.5125	1.74909	0.422615	
81.8147	1.61644	0.417925	
83.1380	1.47370	0.413288	
84.4827	1.31187	0.409319	
85.8491	1.13610	0.415940	
87.2377	0.949499	0.422667	
88.6487	0.741513	0.429504	
90.0825	0.505920	0.436451	
91.5395	0.232650	0.444919	
93.0201	-0.897265E-01	0.456522	
94.5246	-0.483913	0.468427	
96.0535	-1.00199	0.480642	
97.6071	-1.77985	0.493176	
99.1858	-3.56908	0.506036	
99.7000	-6.18001	0.510252	
99.9000	-6.05874	4.60742	
100.790	-2.49414	4.36790	
102.420	-1.41012	3.96584	
104.077	-1.59076	3.67344	
105.760	-1.86393	4.06738	
107.471	-1.91407	4.59846	
109.209	-1.91926	4.98894	
110.975	-1.90796	5.44891	
112.770	-1.84686	5.91517	
114.594	-1.89319	6.36814	
116.448	-1.78635	7.15341	
118.331	-1.29639	7.84034	
120.245	-0.726227	8.20258	
122.190	-0.277852	8.53330	
124.166	0.173200	8.72508	
126.175	0.525660	8.91085	
128.215	0.841990	9.15569	
130.289	1.22962	9.48472	
132.397	1.90946	9.75016	
134.538	2.68320	9.59842	
136.714	2.92470	9.14985	
138.925	2.93832	9.07804	
141.172	2.97760	9.18713	
143.456	3.12699	9.24609	
145.776	3.28760	9.51014	
148.134	3.60546	9.68340	
150.530	3.80850	9.74721	
152.964	4.18181	10.0588	
155.439	4.50011	9.63686	
157.953	4.41742	9.86350	
160.507	4.57949	10.1824	
163.103	5.01718	10.5848	
165.742	5.53912	10.7803	
168.422	6.25062	10.9311	
171.146	7.04803	10.7977	
173.915	7.59936	10.2299	
176.727	7.73042	9.69630	
179.586	7.68337	9.44758	
182.491	7.75382	9.43155	
185.442	7.92526	9.35513	
188.442	8.09281	9.27872	
191.489	8.26148	9.19125	
194.587	8.42725	9.10461	
197.734	8.58778	9.01878	
200.932	8.74259	8.93376	
204.182	8.88787	8.85874	
207.485	9.04125	8.79401	
210.840	9.19938	8.72975	
214.251	9.36233	8.66596	
217.716	9.53251	8.60263	
221.237	9.71871	8.53900	
224.816	9.90190	8.42674	
228.452	10.0672	8.31596	
232.147	10.2175	8.20664	
235.902	10.3615	8.09875	
239.717	10.5007	7.99229	
243.595	10.6369	7.88721	
247.535	10.7750	7.78353	
251.538	10.9092	7.66683	
255.607	11.0352	7.54641	
259.741	11.1499	7.42788	
263.942	11.2589	7.31121	
268.211	11.3630	7.19638	
272.549	11.4626	7.08334	
276.957	11.5585	6.97209	
281.437	11.6511	6.86258	
285.989	11.7409	6.75479	
290.615	11.8284	6.64869	
295.315	11.9165	6.54426	
300.092	12.0029	6.43724	
304.945	12.0849	6.32610	
309.878	12.1609	6.21688	
314.890	12.2331	6.10955	
319.983	12.3022	6.00406	
325.158	12.3687	5.90040	
330.418	12.4330	5.79853	
335.762	12.4953	5.69841	
341.192	12.5563	5.60003	
346.711	12.6162	5.50334	
352.319	12.6756	5.40832	
358.017	12.7369	5.31495	
363.808	12.8014	5.22319	
369.692	12.8726	5.11648	
375.672	12.9286	5.00323	
381.748	12.9766	4.89249	
387.922	13.0193	4.78420	
394.197	13.0578	4.67831	
400.573	13.0928	4.57476	
407.052	13.1249	4.47350	
413.635	13.1543	4.37448	
420.326	13.1814	4.27765	
427.124	13.2064	4.18297	
434.032	13.2297	4.09038	
441.052	13.2514	3.99984	
448.186	13.2717	3.91131	
455.435	13.2923	3.82473	
462.802	13.3125	3.73966	
470.287	13.3314	3.65020	
477.894	13.3459	3.56288	
485.623	13.3579	3.47765	
493.478	13.3678	3.39445	
501.459	13.3760	3.31325	
509.570	13.3827	3.23399	
517.812	13.3881	3.15663	
526.187	13.3923	3.08111	
534.698	13.3956	3.00741	
543.346	13.3979	2.93546	
552.134	13.3995	2.86524	
561.065	13.4005	2.79669	
570.139	13.4010	2.72979	
579.361	13.4032	2.66449	
588.732	13.4051	2.59776	
598.254	13.4044	2.52944	
607.930	13.4009	2.46291	
617.763	13.3956	2.39813	
627.755	13.3890	2.33506	
637.908	13.3811	2.27365	
648.226	13.3721	2.21385	
658.711	13.3621	2.15562	
669.365	13.3510	2.09892	
680.191	13.3387	2.04372	
691.193	13.3247	1.98997	
702.372	13.3089	1.94038	
713.733	13.2944	1.89441	
725.277	13.2813	1.84953	
737.008	13.2688	1.80572	
748.928	13.2566	1.76294	
761.042	13.2448	1.72118	
773.351	13.2332	1.68040	
785.859	13.2224	1.64060	
798.570	13.2140	1.60106	
811.486	13.2045	1.55838	
824.611	13.1922	1.51685	
837.949	13.1791	1.47642	
851.502	13.1655	1.43707	
865.274	13.1514	1.39876	
879.269	13.1370	1.36148	
893.491	13.1241	1.32519	
907.943	13.1112	1.28748	
922.628	13.0959	1.24842	
937.551	13.0785	1.21055	
952.715	13.0599	1.17383	
968.124	13.0401	1.13823	
983.783	13.0194	1.10370	
999.695	12.9978	1.07019	
1015.86	12.9753	1.03762	
1032.29	12.9518	1.00605	
1048.99	12.9274	0.975429	
1065.96	12.9019	0.945745	
1083.20	12.8747	0.916964	
1100.72	12.8449	0.890814	
1118.52	12.8164	0.867595	
1136.61	12.7886	0.844924	
1155.	12.7606	0.822849	
1173.68	12.7320	0.801358	
1192.66	12.7029	0.780403	
1211.95	12.6729	0.759950	
1231.55	12.6420	0.739972	
1251.47	12.6100	0.720520	
1271.72	12.5768	0.701583	
1292.29	12.5422	0.683145	
1313.19	12.5061	0.665035	
1334.43	12.4681	0.647377	
1356.01	12.4281	0.630164	
1377.94	12.3857	0.613411	
1400.23	12.3408	0.597063	
1422.88	12.2928	0.581081	
1445.89	12.2412	0.565493	
1469.28	12.1857	0.550319	
1493.04	12.1256	0.535553	
1517.19	12.0599	0.520574	
1541.73	11.9872	0.505900	
1566.67	11.9060	0.491586	
1592.01	11.8145	0.477683	
1617.76	11.7103	0.464172	
1643.92	11.5895	0.451037	
1670.51	11.4468	0.438275	
1697.53	11.2736	0.425876	
1724.99	11.0553	0.413830	
1752.89	10.7644	0.401672	
1781.24	10.3375	0.389718	
1810.05	9.56981	0.378002	
1838.80	2.83419	0.366838	
1839.	2.83587	4.15734	
1839.32	4.58055	4.15632	
1869.07	9.82501	4.06452	
1899.30	10.7241	3.97475	
1930.02	11.2672	3.88688	
1961.24	11.6600	3.80093	
1992.96	11.9679	3.71688	
2025.20	12.2246	3.63698	
2057.95	12.4432	3.55385	
2091.24	12.6312	3.47181	
2125.06	12.7963	3.39095	
2159.43	12.9428	3.31123	
2194.36	13.0739	3.23274	
2229.85	13.1921	3.15553	
2265.92	13.2991	3.07956	
2302.57	13.3966	3.00498	
2339.81	13.4856	2.93157	
2377.66	13.5670	2.85938	
2416.11	13.6418	2.78864	
2455.19	13.7105	2.71913	
2494.90	13.7736	2.65099	
2535.26	13.8319	2.58417	
2576.26	13.8857	2.51869	
2617.93	13.9354	2.45445	
2660.27	13.9811	2.39148	
2703.30	14.0234	2.32994	
2747.03	14.0625	2.26955	
2791.46	14.0984	2.21044	
2836.61	14.1317	2.15277	
2882.49	14.1624	2.09620	
2929.11	14.1906	2.04085	
2976.48	14.2165	1.98681	
3024.63	14.2404	1.93399	
3073.55	14.2623	1.88234	
3123.26	14.2824	1.83187	
3173.78	14.3008	1.78256	
3225.11	14.3176	1.73442	
3277.27	14.3328	1.68741	
3330.28	14.3467	1.64150	
3384.15	14.3592	1.59669	
3438.88	14.3705	1.55296	
3494.50	14.3807	1.51031	
3551.02	14.3897	1.46867	
3608.46	14.3977	1.42807	
3666.82	14.4048	1.38848	
3726.13	14.4110	1.34989	
3786.40	14.4164	1.31225	
3847.64	14.4209	1.27555	
3909.87	14.4247	1.23979	
3973.11	14.4279	1.20495	
4037.38	14.4304	1.17100	
4102.68	14.4323	1.13791	
4169.03	14.4336	1.10569	
4236.46	14.4344	1.07432	
4304.98	14.4348	1.04375	
4374.62	14.4346	1.01398	
4445.37	14.4341	0.985008	
4517.27	14.4331	0.956808	
4590.33	14.4318	0.929335	
4664.58	14.4301	0.902611	
4740.03	14.4281	0.876592	
4816.69	14.4259	0.851289	
4894.60	14.4233	0.826671	
4973.77	14.4205	0.802700	
5054.21	14.4175	0.779406	
5135.96	14.4143	0.756713	
5219.03	14.4109	0.734648	
5303.44	14.4073	0.713218	
5389.22	14.4036	0.692353	
5476.39	14.3997	0.672068	
5564.97	14.3957	0.652358	
5654.98	14.3916	0.633172	
5746.44	14.3874	0.614532	
5839.39	14.3831	0.596422	
5933.83	14.3788	0.578825	
6029.81	14.3744	0.561692	
6127.33	14.3699	0.545062	
6226.44	14.3654	0.528895	
6327.15	14.3609	0.513197	
6429.48	14.3563	0.497896	
6533.48	14.3518	0.483093	
6639.15	14.3472	0.468675	
6746.54	14.3427	0.454668	
6855.65	14.3382	0.441069	
6966.54	14.3337	0.427861	
7079.22	14.3293	0.415029	
7193.72	14.3249	0.402564	
7310.07	14.3206	0.390462	
7428.31	14.3163	0.378704	
7548.45	14.3122	0.367289	
7670.54	14.3081	0.356207	
7794.61	14.3042	0.345446	
7920.68	14.3005	0.334993	
8048.79	14.2969	0.324848	
8178.98	14.2935	0.314994	
8311.26	14.2903	0.305432	
8445.69	14.2874	0.296153	
8582.29	14.2849	0.287138	
8721.11	14.2828	0.278388	
8862.16	14.2813	0.269899	
9005.50	14.2806	0.261658	
9151.16	14.2811	0.253660	
9299.17	14.2834	0.245895	
9449.58	14.2890	0.238363	
9602.42	14.3027	0.231050	
9757.73	14.3512	0.223956	
9915.55	14.3085	0.217071	
10075.9	14.2512	0.210391	
10238.9	14.2370	0.203909	
10404.5	14.2220	0.197620	
10572.8	14.2093	0.191519	
10743.8	14.1983	0.185599	
10917.6	14.1885	0.179855	
11094.2	14.1797	0.174284	
11273.6	14.1717	0.168878	
11455.9	14.1643	0.163635	
11641.2	14.1575	0.158549	
11829.5	14.1511	0.153615	
12020.8	14.1452	0.148829	
12215.3	14.1395	0.144187	
12412.8	14.1342	0.139685	
12613.6	14.1292	0.135318	
12817.6	14.1245	0.131083	
13025.0	14.1200	0.126975	
13235.6	14.1157	0.122991	
13449.7	14.1116	0.119128	
13667.2	14.1077	0.115382	
13888.3	14.1039	0.111749	
14112.9	14.1003	0.108225	
14341.2	14.0969	0.104809	
14573.1	14.0936	0.101496	
14808.9	14.0904	0.982840E-01
15048.4	14.0874	0.951693E-01
15291.8	14.0844	0.921493E-01
15539.1	14.0816	0.892211E-01
15790.4	14.0789	0.863820E-01
16045.8	14.0763	0.836295E-01
16305.4	14.0737	0.809607E-01
16569.1	14.0713	0.783734E-01
16837.1	14.0689	0.758650E-01
17109.4	14.0667	0.734333E-01
17386.1	14.0645	0.710758E-01
17667.4	14.0623	0.687904E-01
17953.1	14.0603	0.665749E-01
18243.5	14.0583	0.644272E-01
18538.6	14.0564	0.623454E-01
18838.4	14.0545	0.603273E-01
19143.1	14.0527	0.583711E-01
19452.7	14.0510	0.564749E-01
19767.4	14.0493	0.546369E-01
20087.1	14.0476	0.528538E-01
20412.0	14.0460	0.511285E-01
20742.1	14.0445	0.494581E-01
21077.6	14.0430	0.478409E-01
21418.5	14.0415	0.462754E-01
21765.0	14.0401	0.447596E-01
22117.0	14.0388	0.432924E-01
22474.7	14.0375	0.418720E-01
22838.2	14.0362	0.404969E-01
23207.6	14.0349	0.391658E-01
23583.0	14.0337	0.378774E-01
23964.4	14.0326	0.366302E-01
24352.0	14.0314	0.354230E-01
24745.9	14.0303	0.342545E-01
25146.2	14.0293	0.331235E-01
25552.9	14.0283	0.320289E-01
25966.2	14.0273	0.309694E-01
26386.1	14.0263	0.299440E-01
26812.9	14.0254	0.289516E-01
27246.6	14.0245	0.279912E-01
27687.3	14.0236	0.270618E-01
28135.1	14.0228	0.261623E-01
28590.2	14.0220	0.252919E-01
29052.6	14.0212	0.244497E-01
29522.5	14.0208	0.236346E-01
30000.0	14.0197	0.228460E-01
